Method:,Hadamard 1,,
Host Date-Time:,30/5/22 @ 18:59:0,,
Header Version:,1,,
System Temp (C):,36.59,,
Detector Temp (C):,0,,
Humidity (%):,74.46,,
Lamp PD:,3590,,
Shift Vector Coefficients:,-1.66903,0.0218938,-6.22E-05
Pixel to Wavelength Coefficients:,1813.49,-0.916957,-0.000241161
Serial Number:,6110023,,
Scan Config Name:,Hadamard 1,,
Scan Config Type:,Slew,,
Section 1,,,
Start wavelength (nm):,900,,
End wavelength (nm):,1700,,
Pattern Pixel Width (nm):,7.03,,
Exposure (ms):,0.635,,
Digital Resolution:,228,,
Num Repeats:,6,,
PGA Gain:,64,,
Total Measurement Time in sec:,2.451,,
Wavelength (nm),Absorbance (AU),Reference Signal (unitless),Sample Signal (unitless)
901.398183,1.091476,66710,5404
905.331226,1.099317,78157,6218
909.259927,1.093397,86609,6985
913.184288,1.095699,93489,7500
917.104308,1.099426,100845,8021
921.019987,1.09235,109482,8851
924.931325,1.089224,119909,9764
930.13969,1.09021,137192,11146
934.0409,1.090607,152853,12407
937.937768,1.088157,169744,13856
941.830296,1.083374,186508,15393
945.718482,1.08061,202505,16820
949.602328,1.07747,217278,18178
953.481833,1.078105,230871,19287
957.356997,1.074319,244614,20614
961.22782,1.074768,258290,21744
965.094302,1.07093,272207,23119
968.956444,1.066934,285930,24509
972.814244,1.059484,299324,26101
976.667703,1.056117,312317,27446
981.798897,1.049819,328323,29274
985.642228,1.047658,339047,30381
989.481217,1.043718,347929,31461
993.315866,1.037915,355969,32621
997.146174,1.033053,362225,33568
1000.972141,1.029974,367316,34282
1004.793768,1.026298,370988,34919
1008.611053,1.023009,373767,35448
1012.423997,1.017548,375552,36068
1016.232601,1.013328,376293,36492
1020.036863,1.00756,376711,37021
1023.836785,1.005424,377323,37264
1028.896595,0.999538,377418,37782
1032.686388,0.996977,377404,38004
1036.47184,0.992499,377110,38368
1040.252951,0.989152,377014,38655
1044.029721,0.985518,376852,38963
1047.80215,0.986143,377578,38982
1051.570239,0.982354,378360,39405
1055.333986,0.98001,379943,39784
1059.093393,0.980188,381341,39914
1062.848459,0.980201,382852,40071
1066.599184,0.981243,385285,40229
1070.345568,0.979611,388277,40694
1075.333994,0.981651,391754,40866
1079.070249,0.982981,394773,41055
1082.802163,0.983636,397689,41296
1086.529736,0.985999,400401,41352
1090.252969,0.987655,403068,41469
1093.97186,0.990493,406200,41519
1097.686411,0.992945,409002,41570
1101.396621,0.997868,410878,41290
1105.10249,1.002198,412864,41078
1108.804018,1.005099,415004,41016
1112.501205,1.008141,416484,40875
1116.194051,1.012546,417087,40521
1121.111093,1.01896,418497,40062
1124.793811,1.022179,419748,39885
1128.472187,1.029452,419934,39240
1132.146223,1.037918,420245,38511
1135.815917,1.045832,420439,37833
1139.481271,1.057432,420703,36859
1143.142284,1.067897,420850,35994
1146.798956,1.07862,421771,35193
1150.451287,1.086659,422045,34570
1154.099277,1.093073,422934,34135
1157.742927,1.096441,423730,33935
1161.382235,1.099012,424814,33821
1166.227894,1.101762,426703,33757
1169.857073,1.102038,428315,33863
1173.481912,1.100829,430631,34141
1177.10241,1.101715,433684,34313
1180.718567,1.101617,436430,34538
1184.330383,1.10052,440333,34935
1187.937858,1.102559,446216,35236
1191.540992,1.103256,452603,35683
1195.139786,1.100842,457940,36305
1198.734238,1.10133,464099,36752
1202.324349,1.101117,470422,37271
1205.91012,1.09841,477509,38069
1209.49155,1.096343,484442,38806
1214.260037,1.094997,494430,39729
1217.831338,1.091322,503023,40763
1221.398298,1.088252,510557,41667
1224.960917,1.086251,518370,42500
1228.519195,1.082284,525876,43511
1232.073133,1.079981,534924,44495
1235.622729,1.076413,543735,45601
1239.167985,1.075271,552416,46451
1242.708899,1.072174,560133,47437
1246.245473,1.068424,569272,48629
1249.777706,1.066982,579005,49625
1253.305598,1.065329,587987,50587
1258.002701,1.065112,599694,51620
1261.520465,1.064246,608633,52494
1265.033887,1.062007,616784,53472
1268.542968,1.061712,625091,54229
1272.047709,1.060569,634956,55230
1275.548108,1.061695,645504,56002
1279.044167,1.060687,655587,57009
1282.535885,1.061348,663922,57646
1286.023262,1.061801,671751,58265
1289.506298,1.061504,679680,58993
1292.984993,1.062966,686584,59392
1296.459347,1.065411,693263,59633
1301.085067,1.067403,699708,59912
1304.549292,1.067841,704249,60240
1308.009177,1.069098,708001,60386
1311.46472,1.069787,711016,60547
1314.915923,1.070771,714948,60744
1318.362785,1.072468,718007,60766
1321.805306,1.074062,720446,60749
1325.243486,1.075418,721901,60682
1328.677325,1.075758,722847,60714
1332.106823,1.076755,724020,60673
1335.53198,1.076379,724288,60748
1338.952797,1.078209,723120,60395
1343.507133,1.078236,722219,60316
1346.91782,1.079892,721047,59989
1350.324167,1.080364,719268,59776
1353.726173,1.0829,716267,59180
1357.123838,1.08469,714485,58790
1360.517162,1.086013,712680,58463
1363.906145,1.08659,710356,58195
1367.290787,1.085812,707390,58056
1370.671089,1.085694,704592,57842
1374.047049,1.084812,702177,57761
1377.418669,1.086631,700827,57409
1380.785947,1.088178,698550,57019
1384.148885,1.087791,697218,56961
1388.62605,1.087748,697174,56963
1391.978858,1.088599,696224,56774
1395.327327,1.089108,693847,56514
1398.671454,1.091683,692095,56038
1402.01124,1.094357,690007,55526
1405.346685,1.09684,687514,55010
1408.67779,1.099825,684705,54410
1412.004553,1.104672,682706,53649
1415.326976,1.107175,680752,53188
1418.645058,1.109951,678470,52672
1421.958799,1.113265,676178,52095
1425.268199,1.114875,674481,51772
1429.67398,1.119283,673255,51156
1432.973251,1.122668,671666,50639
1436.268181,1.123218,670192,50464
1439.55877,1.125162,670398,50254
1442.845019,1.126064,669786,50104
1446.126927,1.128772,668555,49701
1449.404493,1.130188,667527,49463
1452.677719,1.129536,667145,49509
1455.946604,1.131122,666259,49263
1459.211148,1.132074,664888,49054
1462.471351,1.132482,662596,48839
1465.727213,1.132461,660339,48675
1470.06161,1.132542,657083,48426
1473.307344,1.13418,654268,48037
1476.548736,1.133675,651345,47878
1479.785788,1.134449,649168,47633
1483.018499,1.133991,646768,47507
1486.246869,1.132332,643543,47451
1489.470897,1.13292,640272,47146
1492.690586,1.133374,637177,46869
1495.905933,1.13279,633998,46698
1499.116939,1.133042,630441,46409
1502.323604,1.132321,626492,46195
1505.525929,1.132363,622498,45896
1509.788942,1.131305,617236,45619
1512.981138,1.130633,613309,45399
1516.168993,1.131224,608165,44957
1519.352506,1.134144,604219,44366
1522.531679,1.137567,599460,43671
1525.706511,1.141519,594149,42892
1528.877003,1.140516,588992,42618
1532.043153,1.138766,583636,42401
1535.204962,1.137184,577975,42143
1538.362431,1.136916,571876,41724
1541.515558,1.135095,566044,41472
1544.664345,1.130456,559692,41447
1548.855975,1.128834,550650,40930
1551.994632,1.127512,544014,40560
1555.128949,1.126859,537009,40098
1558.258926,1.128233,529951,39446
1561.384561,1.126336,522425,39056
1564.505855,1.126448,514612,38462
1567.622808,1.125235,506919,37993
1570.735421,1.125973,498813,37322
1573.843693,1.125829,490337,36700
1576.947623,1.125732,481799,36069
1580.047213,1.12403,473169,35562
1583.142462,1.124291,464240,34870
1586.23337,1.124258,454846,34167
1590.347828,1.123878,443037,33309
1593.428607,1.122067,433603,32736
1596.505046,1.120729,424822,32172
1599.577143,1.119124,415467,31580
1602.6449,1.120081,405875,30783
1605.708315,1.116579,396167,30290
1608.76739,1.114208,386270,29695
1611.822124,1.113207,377335,29075
1614.872517,1.109958,367141,28502
1617.918569,1.107994,357522,27881
1620.96028,1.108435,348309,27135
1623.99765,1.106665,339503,26557
1628.040725,1.103889,327369,25772
1631.067966,1.105572,318336,24964
1634.090867,1.099939,309136,24559
1637.109426,1.101523,300336,23773
1640.123645,1.099243,291009,23156
1643.133523,1.09954,281990,22423
1646.13906,1.097008,272399,21787
1649.140256,1.095786,262607,21063
1652.137111,1.094118,252745,20350
1655.129625,1.090108,241734,19644
1658.117799,1.080336,229810,19100
1661.101631,1.072576,215801,18259
1665.073322,1.056209,193911,17037
1668.047026,1.038081,174674,16001
1671.016388,1.018014,154518,14824
1673.98141,0.996241,134114,13528
1676.942091,0.974044,114602,12166
1679.898431,0.954256,96807,10756
1682.85043,0.945137,81602,9259
1685.798089,0.937894,68378,7889
1688.741406,0.936368,57834,6696
1691.680383,0.93855,49219,5670
1694.615018,0.941095,42034,4814
1697.545313,0.93798,36142,4169
1701.44562,0.946627,29564,3343
